H #1 LOT 1403 RT parallel  
Central wavelength at 23°C: 1652.0 nm
Calculated central wavelength at 77K & F/2.35: 1647.1 nm
shifted data
lambda nm transmission %     
2095.1      0.0130
2094.6      0.0450
2094.1      0.0050
2093.6      -0.0020
2093.1      0.0630
2092.6      -0.0140
2092.1      0.0040
2091.6      0.0310
2091.1      -0.0190
2090.6      0.0130
2090.1      -0.0530
2089.6      -0.0330
2089.1      0.0240
2088.6      0.0060
2088.1      -0.0200
2087.6      0.0400
2087.1      0.0000
2086.6      -0.0340
2086.1      -0.0010
2085.6      0.0270
2085.1      0.0080
2084.6      0.0280
2084.1      -0.0180
2083.6      0.0150
2083.1      0.0240
2082.6      -0.0090
2082.1      0.0230
2081.6      0.0120
2081.1      0.0350
2080.6      0.0040
2080.1      -0.0930
2079.6      0.0200
2079.1      0.0640
2078.6      0.0220
2078.1      0.0440
2077.6      0.0090
2077.1      -0.0660
2076.6      0.0260
2076.1      -0.0070
2075.6      0.0090
2075.1      0.0110
2074.6      0.0380
2074.1      0.0030
2073.6      0.0270
2073.1      0.0340
2072.6      0.0120
2072.1      -0.0350
2071.6      -0.0090
2071.1      0.0260
2070.6      0.0190
2070.1      -0.0050
2069.6      -0.0230
2069.1      0.0220
2068.6      0.0050
2068.1      0.0490
2067.6      -0.0080
2067.1      -0.0240
2066.6      -0.0150
2066.1      0.0050
2065.6      0.0070
2065.1      0.0300
2064.6      0.0060
2064.1      -0.0350
2063.6      0.0140
2063.1      0.0100
2062.6      0.0240
2062.1      -0.0050
2061.6      -0.0070
2061.1      0.0070
2060.6      0.0430
2060.1      -0.0030
2059.6      0.0260
2059.1      -0.0260
2058.6      -0.0190
2058.1      0.0060
2057.6      -0.0440
2057.1      -0.0370
2056.6      0.0130
2056.1      -0.0080
2055.6      0.1220
2055.1      -0.0290
2054.6      -0.0540
2054.1      -0.0030
2053.6      -0.0380
2053.1      -0.0520
2052.6      0.0320
2052.1      0.0440
2051.6      -0.0240
2051.1      0.0050
2050.6      -0.0050
2050.1      0.0000
2049.6      0.0220
2049.1      0.0300
2048.6      -0.0490
2048.1      0.0030
2047.6      -0.0220
2047.1      0.0310
2046.6      -0.0120
2046.1      -0.0090
2045.6      0.0070
2045.1      -0.0030
2044.6      -0.0150
2044.1      0.0360
2043.6      -0.0350
2043.1      -0.0090
2042.6      0.0190
2042.1      -0.0280
2041.6      -0.0150
2041.1      0.0510
2040.6      0.0350
2040.1      -0.0160
2039.6      0.0150
2039.1      0.0120
2038.6      -0.0560
2038.1      0.0280
2037.6      0.0110
2037.1      0.0190
2036.6      0.0100
2036.1      -0.0060
2035.6      0.0030
2035.1      0.0080
2034.6      -0.0080
2034.1      0.0000
2033.6      -0.0080
2033.1      -0.0810
2032.6      0.0770
2032.1      0.0450
2031.6      0.0050
2031.1      0.0190
2030.6      0.0180
2030.1      0.0310
2029.6      0.0110
2029.1      0.0310
2028.6      0.0470
2028.1      -0.0890
2027.6      0.0020
2027.1      0.0410
2026.6      -0.0300
2026.1      0.0050
2025.6      -0.0270
2025.1      -0.0010
2024.6      0.0220
2024.1      0.0300
2023.6      0.0190
2023.1      0.0000
2022.6      -0.0010
2022.1      -0.0440
2021.6      -0.0110
2021.1      0.0040
2020.6      0.0060
2020.1      -0.0200
2019.6      0.0100
2019.1      0.0250
2018.6      0.0390
2018.1      0.0470
2017.6      -0.0110
2017.1      -0.0070
2016.6      0.0220
2016.1      0.0770
2015.6      0.0040
2015.1      -0.0340
2014.6      0.0890
2014.1      -0.0040
2013.6      0.0020
2013.1      -0.0300
2012.6      0.0060
2012.1      -0.0090
2011.6      -0.0050
2011.1      -0.0260
2010.6      0.0050
2010.1      0.0030
2009.6      0.0280
2009.1      -0.0100
2008.6      -0.0090
2008.1      0.0160
2007.6      0.0000
2007.1      -0.0400
2006.6      0.0310
2006.1      -0.0250
2005.6      0.0190
2005.1      0.0760
2004.6      -0.0030
2004.1      -0.0300
2003.6      -0.0020
2003.1      0.0110
2002.6      -0.0020
2002.1      -0.0020
2001.6      0.0200
2001.1      -0.0420
2000.6      -0.0450
2000.1      -0.0320
1999.6      0.0030
1999.1      -0.0510
1998.6      -0.0140
1998.1      -0.0270
1997.6      -0.0190
1997.1      0.0410
1996.6      0.0150
1996.1      -0.0640
1995.6      -0.0080
1995.1      -0.0600
1994.6      -0.0150
1994.1      0.0190
1993.6      0.0000
1993.1      -0.0250
1992.6      0.0330
1992.1      -0.0060
1991.6      -0.0250
1991.1      -0.0270
1990.6      0.0080
1990.1      -0.0050
1989.6      0.0410
1989.1      0.0000
1988.6      -0.0050
1988.1      -0.0140
1987.6      0.0320
1987.1      -0.0160
1986.6      -0.0400
1986.1      -0.0010
1985.6      0.0260
1985.1      -0.0440
1984.6      -0.0250
1984.1      0.0600
1983.6      0.0330
1983.1      -0.0180
1982.6      0.0290
1982.1      0.0160
1981.6      0.0110
1981.1      0.0010
1980.6      0.0180
1980.1      0.0130
1979.6      0.0320
1979.1      0.0380
1978.6      0.0010
1978.1      0.0050
1977.6      0.0290
1977.1      0.0480
1976.6      -0.0400
1976.1      0.0320
1975.6      0.0030
1975.1      -0.0150
1974.6      0.0220
1974.1      0.0310
1973.6      -0.0380
1973.1      -0.0070
1972.6      -0.0270
1972.1      0.0170
1971.6      0.0200
1971.1      0.0490
1970.6      0.0040
1970.1      0.0070
1969.6      0.0250
1969.1      -0.0080
1968.6      -0.0060
1968.1      0.0210
1967.6      0.0050
1967.1      -0.1210
1966.6      0.0570
1966.1      0.0320
1965.6      -0.0110
1965.1      0.0520
1964.6      0.0290
1964.1      -0.1250
1963.6      0.0280
1963.1      0.0410
1962.6      0.0170
1962.1      -0.0090
1961.6      -0.0010
1961.1      0.0090
1960.6      0.0510
1960.1      0.0100
1959.6      -0.0090
1959.1      -0.0260
1958.6      0.0090
1958.1      0.0210
1957.6      0.0000
1957.1      0.0050
1956.6      -0.0120
1956.1      -0.0010
1955.6      0.0400
1955.1      -0.0390
1954.6      0.0200
1954.1      0.0130
1953.6      -0.0150
1953.1      -0.0330
1952.6      0.0540
1952.1      0.0460
1951.6      -0.0270
1951.1      -0.0230
1950.6      0.0250
1950.1      -0.0030
1949.6      -0.0070
1949.1      0.0260
1948.6      0.0800
1948.1      0.0010
1947.6      0.0310
1947.1      -0.0240
1946.6      -0.0160
1946.1      0.0270
1945.6      -0.0200
1945.1      0.0250
1944.6      0.0440
1944.1      0.0420
1943.6      -0.0220
1943.1      -0.0150
1942.6      0.0250
1942.1      -0.0030
1941.6      0.0250
1941.1      0.0210
1940.6      0.0040
1940.1      -0.0270
1939.6      -0.0060
1939.1      -0.0020
1938.6      -0.0180
1938.1      0.0370
1937.6      -0.0040
1937.1      -0.0140
1936.6      0.0390
1936.1      -0.0030
1935.6      -0.0040
1935.1      -0.0300
1934.6      0.0300
1934.1      0.0440
1933.6      0.0180
1933.1      -0.0060
1932.6      -0.0130
1932.1      -0.0060
1931.6      0.0050
1931.1      0.0330
1930.6      -0.0340
1930.1      0.0220
1929.6      -0.0280
1929.1      -0.0160
1928.6      -0.0260
1928.1      0.0270
1927.6      -0.0040
1927.1      -0.0120
1926.6      -0.0260
1926.1      -0.0030
1925.6      0.0220
1925.1      -0.0610
1924.6      0.0070
1924.1      0.1100
1923.6      0.0210
1923.1      -0.0200
1922.6      -0.0180
1922.1      -0.0150
1921.6      -0.0020
1921.1      0.0310
1920.6      0.0020
1920.1      0.0500
1919.6      -0.0500
1919.1      0.0150
1918.6      -0.0080
1918.1      0.0110
1917.6      0.0160
1917.1      0.0360
1916.6      -0.0150
1916.1      -0.0650
1915.6      -0.0260
1915.1      -0.0020
1914.6      0.0100
1914.1      0.0710
1913.6      -0.0380
1913.1      -0.0790
1912.6      0.0170
1912.1      0.0080
1911.6      -0.0140
1911.1      -0.0380
1910.6      -0.0060
1910.1      0.0440
1909.6      -0.0260
1909.1      -0.0030
1908.6      0.0290
1908.1      0.0080
1907.6      -0.0080
1907.1      -0.0190
1906.6      0.0170
1906.1      0.0540
1905.6      -0.0310
1905.1      -0.0200
1904.6      0.0290
1904.1      -0.0090
1903.6      -0.0050
1903.1      0.0100
1902.6      -0.0050
1902.1      0.0090
1901.6      0.0020
1901.1      -0.0220
1900.6      -0.0200
1900.1      -0.0170
1899.6      0.0070
1899.1      0.0200
1898.6      0.0180
1898.1      -0.0030
1897.6      -0.0130
1897.1      0.0060
1896.6      -0.0390
1896.1      0.0660
1895.6      0.0110
1895.1      -0.0720
1894.6      -0.0480
1894.1      0.0120
1893.6      0.0080
1893.1      -0.0070
1892.6      -0.0100
1892.1      -0.0130
1891.6      0.0050
1891.1      0.0070
1890.6      -0.0140
1890.1      -0.0390
1889.6      0.0020
1889.1      0.0210
1888.6      0.0330
1888.1      -0.0240
1887.6      -0.0020
1887.1      0.0200
1886.6      -0.0210
1886.1      0.0050
1885.6      0.0200
1885.1      -0.0130
1884.6      -0.0050
1884.1      -0.0230
1883.6      0.0320
1883.1      0.0070
1882.6      -0.0080
1882.1      0.0000
1881.6      -0.0080
1881.1      0.0230
1880.6      0.0080
1880.1      0.0010
1879.6      0.0400
1879.1      0.0130
1878.6      -0.0070
1878.1      0.0310
1877.6      -0.0620
1877.1      0.0320
1876.6      0.0590
1876.1      -0.0720
1875.6      0.0070
1875.1      0.0110
1874.6      0.0050
1874.1      -0.0190
1873.6      -0.0200
1873.1      0.0520
1872.6      0.0190
1872.1      -0.0290
1871.6      0.0130
1871.1      0.0130
1870.6      -0.0110
1870.1      0.0090
1869.6      -0.0130
1869.1      -0.0250
1868.6      -0.0060
1868.1      0.0720
1867.6      -0.0550
1867.1      -0.0050
1866.6      0.0830
1866.1      -0.0110
1865.6      -0.0040
1865.1      0.0250
1864.6      0.0230
1864.1      -0.0390
1863.6      0.0400
1863.1      -0.0020
1862.6      0.0190
1862.1      0.0170
1861.6      0.0630
1861.1      -0.0470
1860.6      -0.0190
1860.1      0.0000
1859.6      -0.0200
1859.1      0.0150
1858.6      0.0480
1858.1      0.0310
1857.6      0.0390
1857.1      -0.0140
1856.6      -0.0030
1856.1      0.0340
1855.6      0.0220
1855.1      0.0020
1854.6      0.0210
1854.1      0.0160
1853.6      0.0580
1853.1      0.0630
1852.6      0.0250
1852.1      0.0210
1851.6      0.0050
1851.1      0.0480
1850.6      -0.0270
1850.1      0.0100
1849.6      -0.0140
1849.1      0.0220
1848.6      0.0660
1848.1      0.0080
1847.6      0.0080
1847.1      0.0460
1846.6      0.0290
1846.1      0.0360
1845.6      0.0400
1845.1      0.0440
1844.6      0.0270
1844.1      -0.0390
1843.6      0.0710
1843.1      0.0900
1842.6      -0.0400
1842.1      0.0520
1841.6      0.1110
1841.1      0.0440
1840.6      0.0250
1840.1      0.0670
1839.6      0.0390
1839.1      0.0720
1838.6      0.0210
1838.1      0.0210
1837.6      0.0210
1837.1      0.0470
1836.6      0.1580
1836.1      0.0270
1835.6      0.0180
1835.1      0.0120
1834.6      0.1030
1834.1      0.0660
1833.6      -0.0040
1833.1      0.1010
1832.6      0.0820
1832.1      0.0950
1831.6      0.0260
1831.1      0.0720
1830.6      0.0730
1830.1      0.0700
1829.6      0.0920
1829.1      0.0950
1828.6      0.0880
1828.1      0.1030
1827.6      0.1070
1827.1      0.0820
1826.6      0.0600
1826.1      0.1500
1825.6      0.1740
1825.1      0.1040
1824.6      0.1180
1824.1      0.1650
1823.6      0.1680
1823.1      0.2170
1822.6      0.1980
1822.1      0.2170
1821.6      0.1700
1821.1      0.1570
1820.6      0.2410
1820.1      0.2000
1819.6      0.2670
1819.1      0.2360
1818.6      0.2840
1818.1      0.2020
1817.6      0.3220
1817.1      0.3600
1816.6      0.3650
1816.1      0.3810
1815.6      0.3970
1815.1      0.3870
1814.6      0.4710
1814.1      0.4510
1813.6      0.5200
1813.1      0.4300
1812.6      0.6020
1812.1      0.6210
1811.6      0.5950
1811.1      0.6600
1810.6      0.7140
1810.1      0.7420
1809.6      0.7750
1809.1      0.8340
1808.6      0.8950
1808.1      0.9730
1807.6      1.0280
1807.1      1.1250
1806.6      1.1510
1806.1      1.1940
1805.6      1.2780
1805.1      1.3810
1804.6      1.5210
1804.1      1.5450
1803.6      1.7070
1803.1      1.8600
1802.6      1.9790
1802.1      2.1400
1801.6      2.2580
1801.1      2.4120
1800.6      2.5640
1800.1      2.8160
1799.6      2.9980
1799.1      3.2120
1798.6      3.4960
1798.1      3.7470
1797.6      4.0520
1797.1      4.3440
1796.6      4.6580
1796.1      4.9910
1795.6      5.5010
1795.1      5.9360
1794.6      6.3710
1794.1      6.7860
1793.6      7.2860
1793.1      7.9390
1792.6      8.6320
1792.1      9.2980
1791.6      10.0600
1791.1      10.7840
1790.6      11.5940
1790.1      12.4640
1789.6      13.5750
1789.1      14.6780
1788.6      15.8010
1788.1      16.9580
1787.6      18.1190
1787.1      19.4990
1786.6      20.9920
1786.1      22.6220
1785.6      24.2720
1785.1      25.8770
1784.6      27.5670
1784.1      29.3270
1783.6      31.3750
1783.1      33.5820
1782.6      35.6020
1782.1      37.7180
1781.6      39.7200
1781.1      41.8500
1780.6      44.1390
1780.1      46.5370
1779.6      48.8570
1779.1      51.0080
1778.6      53.0780
1778.1      55.1500
1777.6      57.2600
1777.1      59.5270
1776.6      61.6370
1776.1      63.6580
1775.6      65.5070
1775.1      67.1490
1774.6      68.8260
1774.1      70.4700
1773.6      72.1130
1773.1      73.4760
1772.6      74.7590
1772.1      75.9090
1771.6      76.9520
1771.1      77.9950
1770.6      78.9120
1770.1      79.7370
1769.6      80.4300
1769.1      81.0040
1768.6      81.5500
1768.1      82.0460
1767.6      82.4750
1767.1      82.8330
1766.6      83.0440
1766.1      83.2460
1765.6      83.4570
1765.1      83.5810
1764.6      83.6840
1764.1      83.7100
1763.6      83.7660
1763.1      83.7680
1762.6      83.7260
1762.1      83.7110
1761.6      83.6510
1761.1      83.5320
1760.6      83.4680
1760.1      83.3860
1759.6      83.2600
1759.1      83.1430
1758.6      83.0920
1758.1      82.9300
1757.6      82.7810
1757.1      82.7090
1756.6      82.6280
1756.1      82.4650
1755.6      82.3860
1755.1      82.2600
1754.6      82.1610
1754.1      82.1100
1753.6      82.0410
1753.1      81.9760
1752.6      81.9050
1752.1      81.8820
1751.6      81.8010
1751.1      81.7320
1750.6      81.7670
1750.1      81.7150
1749.6      81.7510
1749.1      81.7010
1748.6      81.7140
1748.1      81.7520
1747.6      81.7800
1747.1      81.8110
1746.6      81.8760
1746.1      81.8240
1745.6      81.9000
1745.1      81.9810
1744.6      82.0190
1744.1      82.0760
1743.6      82.1190
1743.1      82.1590
1742.6      82.2710
1742.1      82.3550
1741.6      82.4360
1741.1      82.5320
1740.6      82.5950
1740.1      82.6210
1739.6      82.6820
1739.1      82.8070
1738.6      82.8580
1738.1      82.9060
1737.6      82.9840
1737.1      83.0930
1736.6      83.0930
1736.1      83.2180
1735.6      83.3080
1735.1      83.3620
1734.6      83.4370
1734.1      83.5110
1733.6      83.5150
1733.1      83.5650
1732.6      83.7150
1732.1      83.6690
1731.6      83.7900
1731.1      83.7590
1730.6      83.8080
1730.1      83.8690
1729.6      83.9740
1729.1      83.9910
1728.6      83.9850
1728.1      84.0470
1727.6      84.0970
1727.1      84.0870
1726.6      84.1880
1726.1      84.2450
1725.6      84.3110
1725.1      84.3600
1724.6      84.3850
1724.1      84.4910
1723.6      84.5420
1723.1      84.6240
1722.6      84.6910
1722.1      84.7560
1721.6      84.7860
1721.1      84.9110
1720.6      85.0440
1720.1      85.1180
1719.6      85.2570
1719.1      85.2900
1718.6      85.4440
1718.1      85.5640
1717.6      85.7070
1717.1      85.7970
1716.6      85.9530
1716.1      86.0400
1715.6      86.2740
1715.1      86.3980
1714.6      86.4790
1714.1      86.7050
1713.6      86.8000
1713.1      86.9940
1712.6      87.1590
1712.1      87.3470
1711.6      87.5190
1711.1      87.6970
1710.6      87.8390
1710.1      88.1150
1709.6      88.2420
1709.1      88.4020
1708.6      88.6140
1708.1      88.7220
1707.6      88.8510
1707.1      89.0760
1706.6      89.1960
1706.1      89.3920
1705.6      89.5270
1705.1      89.5920
1704.6      89.8190
1704.1      89.9000
1703.6      89.9430
1703.1      90.1420
1702.6      90.2300
1702.1      90.2380
1701.6      90.3270
1701.1      90.4370
1700.6      90.5410
1700.1      90.5540
1699.6      90.7620
1699.1      90.7290
1698.6      90.6790
1698.1      90.7830
1697.6      90.7620
1697.1      90.7790
1696.6      90.7820
1696.1      90.7900
1695.6      90.6760
1695.1      90.7510
1694.6      90.7040
1694.1      90.5680
1693.6      90.5830
1693.1      90.5010
1692.6      90.3920
1692.1      90.4150
1691.6      90.2880
1691.1      90.1860
1690.6      90.0960
1690.1      89.9740
1689.6      89.8260
1689.1      89.7370
1688.6      89.5980
1688.1      89.4480
1687.6      89.3140
1687.1      89.1760
1686.6      89.0910
1686.1      88.9190
1685.6      88.7540
1685.1      88.5650
1684.6      88.4090
1684.1      88.2670
1683.6      88.0250
1683.1      87.8570
1682.6      87.6170
1682.1      87.4040
1681.6      87.2380
1681.1      86.9240
1680.6      86.7020
1680.1      86.5640
1679.6      86.3100
1679.1      86.0870
1678.6      85.7720
1678.1      85.5180
1677.6      85.3000
1677.1      85.0720
1676.6      84.7960
1676.1      84.5800
1675.6      84.2220
1675.1      83.9410
1674.6      83.6940
1674.1      83.4250
1673.6      83.1590
1673.1      82.8810
1672.6      82.5860
1672.1      82.3040
1671.6      82.0040
1671.1      81.7250
1670.6      81.4790
1670.1      81.2680
1669.6      80.9300
1669.1      80.6460
1668.6      80.3530
1668.1      80.1060
1667.6      79.9190
1667.1      79.6670
1666.6      79.3940
1666.1      79.1650
1665.6      78.9250
1665.1      78.8040
1664.6      78.5120
1664.1      78.3910
1663.6      78.1960
1663.1      77.9700
1662.6      77.8230
1662.1      77.7500
1661.6      77.5340
1661.1      77.4870
1660.6      77.3300
1660.1      77.2240
1659.6      77.1340
1659.1      77.0170
1658.6      76.9620
1658.1      76.9770
1657.6      76.9690
1657.1      76.9170
1656.6      76.9360
1656.1      76.9280
1655.6      76.9360
1655.1      76.9910
1654.6      77.0160
1654.1      77.0450
1653.6      77.0630
1653.1      77.1680
1652.6      77.2630
1652.1      77.3320
1651.6      77.4110
1651.1      77.5350
1650.6      77.6710
1650.1      77.8190
1649.6      77.9230
1649.1      78.1060
1648.6      78.1950
1648.1      78.4010
1647.6      78.5380
1647.1      78.7560
1646.6      78.8750
1646.1      79.0980
1645.6      79.2430
1645.1      79.4340
1644.6      79.6090
1644.1      79.8140
1643.6      80.0500
1643.1      80.2020
1642.6      80.3570
1642.1      80.5670
1641.6      80.7460
1641.1      80.9460
1640.6      81.2270
1640.1      81.3910
1639.6      81.5970
1639.1      81.7980
1638.6      81.9970
1638.1      82.2470
1637.6      82.4680
1637.1      82.6860
1636.6      82.9170
1636.1      83.0440
1635.6      83.2080
1635.1      83.5050
1634.6      83.7680
1634.1      83.9510
1633.6      84.1910
1633.1      84.3850
1632.6      84.5830
1632.1      84.8060
1631.6      85.0310
1631.1      85.2990
1630.6      85.4550
1630.1      85.6690
1629.6      85.8570
1629.1      86.1120
1628.6      86.3640
1628.1      86.5630
1627.6      86.7380
1627.1      86.9210
1626.6      87.1140
1626.1      87.3040
1625.6      87.3810
1625.1      87.6090
1624.6      87.7570
1624.1      87.9320
1623.6      88.0020
1623.1      88.1770
1622.6      88.3190
1622.1      88.3990
1621.6      88.5080
1621.1      88.5850
1620.6      88.6460
1620.1      88.6660
1619.6      88.7100
1619.1      88.7640
1618.6      88.7390
1618.1      88.6770
1617.6      88.6680
1617.1      88.6070
1616.6      88.5670
1616.1      88.5240
1615.6      88.3560
1615.1      88.2890
1614.6      88.1220
1614.1      88.0320
1613.6      87.9280
1613.1      87.7110
1612.6      87.5590
1612.1      87.3480
1611.6      87.1170
1611.1      86.9300
1610.6      86.7470
1610.1      86.5140
1609.6      86.3130
1609.1      85.9910
1608.6      85.7620
1608.1      85.5990
1607.6      85.3310
1607.1      85.1250
1606.6      84.8690
1606.1      84.5420
1605.6      84.3340
1605.1      84.1370
1604.6      83.9160
1604.1      83.8020
1603.6      83.5000
1603.1      83.2840
1602.6      83.0130
1602.1      82.8370
1601.6      82.6490
1601.1      82.4480
1600.6      82.2280
1600.1      82.0810
1599.6      81.8930
1599.1      81.7540
1598.6      81.6140
1598.1      81.4560
1597.6      81.3270
1597.1      81.1950
1596.6      81.0620
1596.1      80.9900
1595.6      80.8900
1595.1      80.7840
1594.6      80.7110
1594.1      80.6280
1593.6      80.5800
1593.1      80.5200
1592.6      80.4460
1592.1      80.4450
1591.6      80.4460
1591.1      80.3590
1590.6      80.3850
